Data from 0.40bar_Subt2__0__18-04-05-842.txt Node

Date: Thu Jan 06 18:04:05 CET 2022
User: fsatto
Spectrometer: OFX01956
Trigger mode: 0
Integration Time (sec): 2.000000E-3
Scans to average: 10
Nonlinearity correction enabled: false
Boxcar width: 0
Storing dark spectrum: false
XAxis mode: Wavelengths
Number of Pixels in Spectrum: 2136
>>>>>Begin Spectral Data<<<<<
158.236	4.6
158.705	-4
159.174	6
159.643	-0.7
160.112	11
160.582	0.1
161.051	7.1
161.52	9.5
161.988	8.4
162.457	9.3
162.926	6.8
163.395	5.1
163.864	4.8
164.332	6.8
164.801	-1.9
165.269	2.6
165.738	3.5
166.206	3.4
166.675	9
167.143	6.3
167.612	3.4
168.08	9.1
168.548	11.9
169.016	3.9
169.484	4.1
169.952	9.5
170.42	5.1
170.888	9.6
171.356	-1.3
171.824	-3.2
172.292	-0.3
172.759	8
173.227	8.3
173.695	3.9
174.162	11.4
174.63	14.4
175.097	3.5
175.565	-3.1
176.032	2.5
176.499	6.5
176.967	10.2
177.434	4.9
177.901	6
178.368	14.6
178.835	9.3
179.302	1.2
179.769	6.6
180.236	9.9
180.703	2
181.17	14
181.637	2.4
182.103	-3
182.57	13.5
183.036	-0.5
183.503	12.1
183.97	13.2
184.436	8.1
184.902	13.1
185.369	8.9
185.835	11.1
186.301	8.6
186.767	7
187.234	11.3
187.7	3.9
188.166	7.7
188.632	2.3
189.098	9.4
189.563	5
190.029	6.4
190.495	5.6
190.961	11.7
191.426	3
191.892	6.8
192.358	3
192.823	2.8
193.289	9.4
193.754	10.7
194.219	12.2
194.685	15.7
195.15	11
195.615	3.5
196.08	9.3
196.545	12.8
197.01	4.3
197.475	9.4
197.94	4.7
198.405	12.5
198.87	10.1
199.335	9.1
199.8	0.7
200.264	75.3
200.729	80.4
201.193	80.8
201.658	77.7
202.122	91
202.587	82.9
203.051	78.7
203.516	96.1
203.98	93.6
204.444	86.9
204.908	88
205.372	95.2
205.836	101.9
206.3	103.1
206.764	110.9
207.228	109.7
207.692	115.4
208.156	117.6
208.62	128.9
209.083	151.5
209.547	153.2
210.011	181.3
210.474	235.3
210.938	256.9
211.401	271.5
211.864	325.5
212.328	377.1
212.791	462
213.254	590.7
213.717	696.4
214.181	761.1
214.644	887.7
215.107	964.2
215.57	1086.3
216.033	1252.2
216.495	1508.4
216.958	1692.8
217.421	1742
217.884	1859.4
218.346	2081.2
218.809	2345.3
219.272	2616.4
219.734	2742.5
220.196	2876.8
220.659	3184.4
221.121	3586.7
221.584	4115.1
222.046	4773.6
222.508	5095.6
222.97	5445.5
223.432	5760.4
223.894	6345.2
224.356	7159.5
224.818	7857.9
225.28	8378.5
225.742	8838.6
226.204	9956.7
226.665	10765.1
227.127	11333.1
227.589	12365.3
228.05	13168.2
228.512	13820.7
228.973	13537.2
229.435	12501.1
229.896	11957.8
230.357	12846
230.818	14734.5
231.28	15510.5
231.741	14944.6
232.202	13462.9
232.663	12201
233.124	13217
233.585	15770
234.046	17877.5
234.507	17536
234.967	15002.1
235.428	13728.2
235.889	14588
236.349	17770.5
236.81	21197.3
237.271	22290.4
237.731	20634.9
238.191	18510.7
238.652	18255.3
239.112	20388.4
239.572	23348
240.033	23954.6
240.493	20915.2
240.953	17710.8
241.413	16941.2
241.873	18277.7
242.333	19800.2
242.793	19099.9
243.253	16941.1
243.712	15625.5
244.172	16011.9
244.632	17881.3
245.092	20306.1
245.551	21001.5
246.011	19521.2
246.47	17624.6
246.93	18184.9
247.389	22143.5
247.848	26908.2
248.308	28729.2
248.767	28183.9
249.226	25588.2
249.685	23419.4
250.144	23436.3
250.603	26904.1
251.062	30406.8
251.521	31563.6
251.98	29871.8
252.439	27591.8
252.897	25539.9
253.356	26135.4
253.815	28450.2
254.273	30890.2
254.732	31760.6
255.19	27759.3
255.649	23145.7
256.107	20796.3
256.566	20882.1
257.024	23726.6
257.482	25222.3
257.94	24536.9
258.398	24204.4
258.856	22973.1
259.315	21945.6
259.772	22508.3
260.23	23572.9
260.688	23891.9
261.146	22560.3
261.604	20369.3
262.062	19534.8
262.519	20136.2
262.977	21627.6
263.434	22182.2
263.892	22504.9
264.349	23143.1
264.807	23366.8
265.264	22719.1
265.721	22113.2
266.179	22367.2
266.636	21926.5
267.093	21121.7
267.55	21433.2
268.007	22763.6
268.464	23425.9
268.921	23404.5
269.378	22365.7
269.835	22114.4
270.291	22204.1
270.748	21944.2
271.205	21628.6
271.661	20869.7
272.118	20063.5
272.574	20012.1
273.031	20333.2
273.487	20078.7
273.944	19395.5
274.4	18884.6
274.856	18903.9
275.312	18254.5
275.768	18197.6
276.225	18115.5
276.681	17824.6
277.137	17083
277.593	16344.2
278.048	16312.3
278.504	16497.4
278.96	16314.7
279.416	15365.7
279.871	14337
280.327	13536.4
280.783	13603.4
281.238	13748.8
281.694	13354.4
282.149	12963.7
282.604	12893
283.06	12677.8
283.515	12211.5
283.97	11903.6
284.425	11506.7
284.88	11068.7
285.335	10698.1
285.79	9830.5
286.245	9036.4
286.7	9206.7
287.155	9558.7
287.61	9601.6
288.064	9683.8
288.519	10144.5
288.974	10160
289.428	9905.5
289.883	9850.3
290.337	10085.2
290.792	10540
291.246	11223.1
291.7	11545.7
292.155	11678.8
292.609	11703.5
293.063	11520.6
293.517	11535.7
293.971	12012.3
294.425	12450.5
294.879	12915.2
295.333	13116.7
295.787	12985.7
296.241	12741.1
296.694	12993.1
297.148	13769.8
297.602	14325.2
298.055	14570.2
298.509	14413.9
298.962	13759.4
299.416	13650.5
299.869	13897
300.322	13890.7
300.775	13980.4
301.229	13680.5
301.682	13626.7
302.135	13533.8
302.588	13152.3
303.041	12861.8
303.494	12252.8
303.947	11641.6
304.4	11436.9
304.852	11118.5
305.305	10808.1
305.758	10328
306.21	9643.4
306.663	9223
307.115	9027.3
307.568	9254.1
308.02	9333
308.473	9245.6
308.925	8738.1
309.377	8334.3
309.829	8255.8
310.282	8160.5
310.734	7886.7
311.186	7551.2
311.638	7286.1
312.09	6936.5
312.542	6640.3
312.993	6203.2
313.445	6039.6
313.897	5936
314.349	5774.4
314.8	5641.5
315.252	5462.4
315.703	5337.8
316.155	5123.1
316.606	4992.5
317.058	4822.9
317.509	4867.3
317.96	4689.2
318.411	4510.3
318.863	4463.8
319.314	4303.1
319.765	4179.6
320.216	3982.2
320.667	3701.2
321.117	3583.4
321.568	3473.2
322.019	3428.3
322.47	3248.6
322.921	3130.9
323.371	2958.6
323.822	2744.4
324.272	2589.9
324.723	2474.7
325.173	2313.7
325.623	2121.1
326.074	2001.9
326.524	1910.7
326.974	2227.6
327.424	3187.1
327.874	3994.5
328.325	3121.5
328.775	2130.3
329.224	1995.3
329.674	1887
330.124	1812.1
330.574	1736.1
331.024	1603.4
331.473	1512.7
331.923	1361.3
332.373	1264.3
332.822	1160.4
333.272	1073.8
333.721	1008
334.17	932.7
334.62	861.7
335.069	812.8
335.518	758.8
335.967	727.1
336.416	703.9
336.865	651.2
337.314	603.1
337.763	538.4
338.212	486.8
338.661	448.6
339.11	419.4
339.558	381.4
340.007	387.5
340.456	384.4
340.904	381.4
341.353	356.3
341.801	331
342.25	309.8
342.698	289.2
343.146	256.8
343.595	231.8
344.043	216.7
344.491	205.6
344.939	196
345.387	187.7
345.835	184.1
346.283	172.8
346.731	150
347.179	153
347.626	133.3
348.074	120.2
348.522	124.7
348.969	114
349.417	107.4
349.865	101.8
350.312	112.1
350.759	92.2
351.207	76.8
351.654	67.1
352.101	71.3
352.548	57.3
352.996	57.6
353.443	64.9
353.89	60.7
354.337	44.9
354.784	59.8
355.231	50.1
355.677	45.8
356.124	50.3
356.571	40.8
357.018	37.2
357.464	42.9
357.911	39.7
358.357	34.6
358.804	44.2
359.25	32.1
359.696	34.7
360.143	29
360.589	23.1
361.035	29.4
361.481	24
361.927	28.2
362.373	31.9
362.819	29.7
363.265	23.3
363.711	21.2
364.157	26
364.603	21.9
365.048	26.9
365.494	25.5
365.94	20.8
366.385	23.6
366.831	24.2
367.276	7.7
367.722	11
368.167	10.2
368.612	11.9
369.057	21.8
369.503	9.9
369.948	12.8
370.393	17.6
370.838	15.9
371.283	13.4
371.728	18.9
372.173	12.8
372.617	15.5
373.062	16.3
373.507	13.8
373.951	29
374.396	12.3
374.841	12.2
375.285	19.3
375.729	10.3
376.174	22.5
376.618	22.4
377.062	4.8
377.507	11.4
377.951	19.6
378.395	14.6
378.839	15.9
379.283	1.8
379.727	18.7
380.171	17.9
380.615	19.1
381.059	19.3
381.502	7.6
381.946	11
382.39	14.9
382.833	16
383.277	4.5
383.72	23.4
384.164	29.2
384.607	29.2
385.05	8.4
385.494	23.1
385.937	14.7
386.38	21.1
386.823	17.3
387.266	15.4
387.709	11.3
388.152	17.4
388.595	9.7
389.038	16.6
389.481	10
389.923	15.9
390.366	9.4
390.809	17.1
391.251	16.1
391.694	11.2
392.136	12.5
392.579	7.7
393.021	15.4
393.463	16.7
393.906	15.7
394.348	18.4
394.79	15.9
395.232	17.4
395.674	20.3
396.116	10.6
396.558	12.9
397	17.8
397.442	13.7
397.884	11.6
398.325	3.5
398.767	18.1
399.209	9.2
399.65	13.3
400.092	14.7
400.533	13.6
400.974	26.1
401.416	10
401.857	12.5
402.298	9.9
402.74	17.9
403.181	17.4
403.622	13.3
404.063	17.2
404.504	10.1
404.945	10.5
405.386	8.6
405.826	20.9
406.267	3.8
406.708	8.6
407.149	16.5
407.589	13.5
408.03	19
408.47	18.9
408.911	24.8
409.351	10.1
409.791	19.7
410.232	17.2
410.672	11.1
411.112	16.2
411.552	9.3
411.992	23.9
412.432	19.3
412.872	15.7
413.312	13.2
413.752	22.6
414.192	6.8
414.632	13
415.071	14.3
415.511	13.6
415.951	7.9
416.39	6.3
416.83	15.3
417.269	10.7
417.708	11.5
418.148	9
418.587	8.9
419.026	18.2
419.465	12.4
419.904	22.6
420.344	26.8
420.783	11.5
421.221	10.4
421.66	14.7
422.099	12.9
422.538	20.6
422.977	18.4
423.415	8.9
423.854	18.7
424.293	14.1
424.731	14.1
425.17	18.8
425.608	7.1
426.046	20.8
426.485	19.5
426.923	11
427.361	9.9
427.799	15.1
428.237	11.4
428.675	19.1
429.113	12.7
429.551	6.7
429.989	19.8
430.427	17.5
430.865	28.6
431.303	9.9
431.74	13.6
432.178	28.3
432.615	11.6
433.053	20.6
433.49	10.4
433.928	6.9
434.365	9.3
434.802	12.3
435.24	8.7
435.677	12.4
436.114	21.7
436.551	7.6
436.988	8
437.425	12.4
437.862	11.5
438.299	20.4
438.736	17.2
439.172	0.8
439.609	16.5
440.046	8.5
440.482	14
440.919	11.2
441.355	7.4
441.792	8.6
442.228	12
442.665	8.6
443.101	13.6
443.537	11.9
443.973	11
444.409	8.9
444.845	14.2
445.281	9.4
445.717	9.8
446.153	18.2
446.589	13.7
447.025	9.2
447.461	24.5
447.896	6.8
448.332	14.7
448.768	17.4
449.203	18.3
449.639	22
450.074	3.8
450.509	17.6
450.945	14.5
451.38	12.1
451.815	15.3
452.25	14.2
452.685	13.5
453.12	20.7
453.555	8.1
453.99	14.1
454.425	13.3
454.86	10.5
455.295	2.1
455.73	14.5
456.164	24.1
456.599	17
457.033	15.6
457.468	15.7
457.902	12.6
458.337	2.1
458.771	10.1
459.205	9.8
459.64	14.3
460.074	12.1
460.508	17.5
460.942	6.7
461.376	7.3
461.81	13.1
462.244	11.4
462.678	27.1
463.112	10
463.545	12.7
463.979	15.1
464.413	10.9
464.846	12.5
465.28	16.4
465.713	14.9
466.147	7.5
466.58	10.4
467.014	15.2
467.447	13
467.88	25.6
468.313	23.5
468.746	24.2
469.179	19
469.612	22
470.045	8.9
470.478	8.3
470.911	5.6
471.344	15
471.777	14.2
472.209	15.6
472.642	22.1
473.074	20.5
473.507	24.8
473.939	24.1
474.372	20.4
474.804	14.9
475.236	19.8
475.669	19.5
476.101	22.5
476.533	10.9
476.965	23.5
477.397	6
477.829	27.1
478.261	19.4
478.693	14.7
479.125	17.5
479.557	16.2
479.988	26.3
480.42	24.3
480.852	25.3
481.283	22.6
481.715	23.5
482.146	18
482.577	23.7
483.009	37
483.44	30.2
483.871	25.7
484.302	19.3
484.734	16.2
485.165	22.3
485.596	17.5
486.027	22.6
486.457	22.1
486.888	23.9
487.319	17.8
487.75	15.3
488.181	14.8
488.611	18.9
489.042	15.1
489.472	23.3
489.903	12.2
490.333	18
490.764	10.8
491.194	8.7
491.624	17.1
492.054	13.6
492.484	19.6
492.915	26.5
493.345	17.8
493.775	12.7
494.204	19.3
494.634	12.9
495.064	23.1
495.494	12.2
495.924	11
496.353	24.7
496.783	15.5
497.212	18.4
497.642	20.1
498.071	11.1
498.501	18
498.93	19.9
499.359	15.9
499.789	7.8
500.218	18.8
500.647	12
501.076	17.2
501.505	16.9
501.934	20.6
502.363	9.4
502.792	14.5
503.221	20.4
503.649	13.5
504.078	3.3
504.507	0.5
504.935	14.2
505.364	8.8
505.792	4.6
506.221	11.6
506.649	11.7
507.077	10.9
507.506	7.4
507.934	20.5
508.362	7.1
508.79	9.6
509.218	15.3
509.646	8.4
510.074	26.2
510.502	21.5
510.93	6.5
511.357	17.3
511.785	19.5
512.213	2.2
512.64	5.5
513.068	15
513.496	14.5
513.923	14.9
514.35	8.6
514.778	13.3
515.205	10.5
515.632	13.4
516.059	8
516.486	9.3
516.914	11.4
517.341	15.9
517.768	7.7
518.194	8.4
518.621	11.5
519.048	12.5
519.475	10.2
519.902	0.9
520.328	10.3
520.755	8.8
521.181	6
521.608	8.5
522.034	13.9
522.461	14.5
522.887	15.3
523.313	11
523.739	13
524.165	1.3
524.592	7.3
525.018	12.2
525.444	2.4
525.869	5.8
526.295	7.4
526.721	14.8
527.147	9.1
527.573	16
527.998	16.7
528.424	18.3
528.849	1.6
529.275	5.8
529.7	10.3
530.126	13.2
530.551	1.6
530.976	13.4
531.402	-0.4
531.827	11.7
532.252	11
532.677	9.4
533.102	3.9
533.527	19.3
533.952	9.9
534.377	2.9
534.801	9.3
535.226	4.7
535.651	5.3
536.076	7.5
536.5	6.6
536.925	-0.5
537.349	8.9
537.773	10.3
538.198	13.6
538.622	17.5
539.046	11
539.471	19.5
539.895	10.4
540.319	11.3
540.743	7.7
541.167	5.6
541.591	22.7
542.015	17.5
542.438	10.9
542.862	13
543.286	18.5
543.71	11.8
544.133	18.6
544.557	21
544.98	14
545.404	14.4
545.827	2.9
546.25	14.2
546.674	15.1
547.097	10.8
547.52	10.3
547.943	8.1
548.366	22.6
548.789	14.1
549.212	13.5
549.635	15.7
550.058	10.5
550.481	20.1
550.903	17.2
551.326	12.7
551.749	14.6
552.171	15.6
552.594	23.9
553.016	17.1
553.438	22.3
553.861	15.3
554.283	12.4
554.705	9.5
555.128	8.8
555.55	19
555.972	11.5
556.394	13.7
556.816	11.4
557.238	19.5
557.659	13.1
558.081	7.3
558.503	15.7
558.925	22.9
559.346	9.9
559.768	14.8
560.189	13.8
560.611	9.8
561.032	10.4
561.454	8.2
561.875	19.9
562.296	5.6
562.718	7.7
563.139	17.4
563.56	9.3
563.981	21
564.402	4.9
564.823	12.1
565.244	7.8
565.664	16.4
566.085	17.2
566.506	10.9
566.927	4
567.347	14.4
567.768	19.3
568.188	15.6
568.609	12.9
569.029	3.8
569.449	16
569.87	9.4
570.29	4.3
570.71	0.6
571.13	3.4
571.55	12.4
571.97	5.5
572.39	3.9
572.81	0.2
573.23	10.8
573.65	3.7
574.069	8.6
574.489	9
574.909	-0.1
575.328	5.7
575.748	12.7
576.167	12.5
576.587	16.3
577.006	-2.9
577.425	13.5
577.844	9.3
578.264	3.8
578.683	17.4
579.102	7.5
579.521	12
579.94	13.5
580.359	9.8
580.778	1.5
581.196	3.9
581.615	-0.5
582.034	13.2
582.452	6.9
582.871	5
583.29	5.5
583.708	12.1
584.126	14.4
584.545	-0.1
584.963	8.4
585.381	16.8
585.8	8.7
586.218	18.6
586.636	9.7
587.054	-1.4
587.472	14.8
587.89	14.1
588.308	10.3
588.725	1.1
589.143	14.3
589.561	0.8
589.979	11.4
590.396	-4.2
590.814	4.2
591.231	9.4
591.649	9.4
592.066	6.8
592.483	-2.9
592.901	2.4
593.318	13
593.735	7
594.152	15.4
594.569	5.2
594.986	9
595.403	1.4
595.82	5.9
596.237	10.1
596.654	9.8
597.07	13.2
597.487	1.8
597.904	9.4
598.32	12.6
598.737	11.9
599.153	-0.4
599.57	9.5
599.986	4.4
600.402	9.8
600.818	5.9
601.235	8.1
601.651	-3.8
602.067	5.6
602.483	-1.5
602.899	11.4
603.315	4.5
603.73	6.8
604.146	5.7
604.562	9
604.978	2.9
605.393	1.3
605.809	0.9
606.224	9.1
606.64	-1.9
607.055	15.8
607.471	20.5
607.886	12.1
608.301	1.2
608.716	14.4
609.131	6.6
609.547	8.2
609.962	7.7
610.377	7.1
610.791	5.5
611.206	9.7
611.621	14.2
612.036	4.7
612.451	14.3
612.865	5.3
613.28	10.2
613.694	16.2
614.109	8.8
614.523	15.3
614.938	12.4
615.352	12.8
615.766	13.2
616.18	24.9
616.595	24.7
617.009	8.2
617.423	15.9
617.837	17.6
618.251	12
618.664	19.7
619.078	26.5
619.492	20.9
619.906	28.7
620.319	23.4
620.733	21
621.146	22.7
621.56	16.6
621.973	31.5
622.387	22.7
622.8	26.4
623.213	35.3
623.627	33.8
624.04	29.7
624.453	39.4
624.866	30.3
625.279	38.7
625.692	45.2
626.105	49.5
626.518	53.1
626.93	49.5
627.343	53.9
627.756	59.7
628.168	54.6
628.581	59.4
628.993	49.6
629.406	63.5
629.818	51.9
630.231	72.5
630.643	74.9
631.055	72
631.467	82.1
631.879	88.7
632.291	88.7
632.703	97.6
633.115	103.5
633.527	100.4
633.939	118.7
634.351	116.4
634.763	119.9
635.174	128
635.586	135.2
635.997	136.3
636.409	142
636.82	148.9
637.232	150.9
637.643	145.8
638.054	149.3
638.466	151.2
638.877	150.1
639.288	158.3
639.699	160.9
640.11	152
640.521	158.1
640.932	156.8
641.343	166.3
641.753	154.7
642.164	140.6
642.575	156.2
642.986	155.8
643.396	170.4
643.807	176.8
644.217	180.1
644.627	161.6
645.038	172.6
645.448	193.4
645.858	186.9
646.269	180.7
646.679	195.7
647.089	192.3
647.499	189.4
647.909	192.1
648.319	189.9
648.728	187.8
649.138	186.1
649.548	180.9
649.958	194.2
650.367	185.5
650.777	194.5
651.186	187.9
651.596	172.8
652.005	170.6
652.415	169.3
652.824	157.5
653.233	168.6
653.642	162.1
654.052	155
654.461	156.2
654.87	135.5
655.279	146.5
655.688	133.6
656.096	139.8
656.505	140.6
656.914	134
657.323	131.7
657.731	131
658.14	134.6
658.548	129.1
658.957	114.1
659.365	115.6
659.774	121.6
660.182	108.4
660.59	117.7
660.998	103.9
661.407	114.7
661.815	123.2
662.223	104.1
662.631	110.5
663.039	106.9
663.446	102.4
663.854	96.5
664.262	98.2
664.67	82.7
665.077	88.8
665.485	82.9
665.892	76.8
666.3	72.6
666.707	61.4
667.115	79
667.522	60.5
667.929	58.6
668.337	48.1
668.744	57.1
669.151	48.4
669.558	61.7
669.965	36.4
670.372	47
670.779	36.3
671.185	39.6
671.592	40.2
671.999	30.4
672.405	33.1
672.812	30.1
673.219	27.8
673.625	35.9
674.032	32.4
674.438	20.1
674.844	28.7
675.25	25.7
675.657	22
676.063	21.6
676.469	23.8
676.875	15.1
677.281	20.9
677.687	17.1
678.093	23.7
678.499	5.1
678.904	8.9
679.31	15.3
679.716	10.9
680.121	4.7
680.527	6.6
680.932	12.3
681.338	15.4
681.743	3
682.148	1.1
682.554	12.6
682.959	6.5
683.364	7.3
683.769	21.2
684.174	12.8
684.579	23.6
684.984	9.3
685.389	19.5
685.794	4.4
686.199	12.1
686.603	12.9
687.008	14.7
687.413	2.9
687.817	3
688.222	5.5
688.626	17.6
689.03	8.6
689.435	12
689.839	20.1
690.243	10.7
690.647	7.8
691.051	10.6
691.456	4.8
691.859	10.2
692.263	6.8
692.667	11.3
693.071	6.8
693.475	7
693.879	16.2
694.282	19.9
694.686	6.8
695.089	17.6
695.493	10
695.896	9.3
696.3	2.5
696.703	12.1
697.106	12.9
697.509	11.7
697.913	4.8
698.316	7.6
698.719	5.2
699.122	0.5
699.525	-6.6
699.928	14
700.33	10.2
700.733	8.8
701.136	-2.9
701.539	19.1
701.941	3.4
702.344	12.1
702.746	-4.2
703.149	8.9
703.551	0.3
703.953	8.5
704.356	9.9
704.758	0.3
705.16	5.5
705.562	25.3
705.964	6.4
706.366	11.9
706.768	-5.4
707.17	9
707.572	8.6
707.973	-9
708.375	0.2
708.777	10.4
709.178	5.8
709.58	4.3
709.981	3.7
710.383	8.8
710.784	22.2
711.186	7.5
711.587	2.8
711.988	14
712.389	6.9
712.79	13.4
713.191	9.3
713.592	3.7
713.993	6.9
714.394	9.6
714.795	7.3
715.196	4.9
715.596	3.5
715.997	1.7
716.398	7.5
716.798	13.7
717.199	0.8
717.599	3.4
718	1.9
718.4	16
718.8	6.6
719.2	9.4
719.6	10.6
720.001	4.4
720.401	1.1
720.801	15.9
721.201	10.9
721.6	6.1
722	12.5
722.4	-3.8
722.8	13.3
723.199	5.3
723.599	23
723.998	9.7
724.398	19.4
724.797	8.6
725.197	4.7
725.596	1.1
725.995	10.3
726.394	9.1
726.794	2.9
727.193	5.4
727.592	12.1
727.991	8.5
728.39	12.3
728.789	10.3
729.187	13.3
729.586	5.7
729.985	6.4
730.383	20
730.782	12.7
731.181	9.4
731.579	13.7
731.977	11.5
732.376	6.5
732.774	9.3
733.172	4.6
733.571	6.5
733.969	4.6
734.367	6.1
734.765	18.8
735.163	6.1
735.561	6.8
735.959	8.7
736.356	11.5
736.754	21.2
737.152	9.6
737.55	7.3
737.947	15.4
738.345	18.8
738.742	20.8
739.14	13.3
739.537	8.5
739.934	18.4
740.331	8
740.729	21.1
741.126	22.1
741.523	15.8
741.92	18.6
742.317	14.8
742.714	14.7
743.111	10.6
743.507	21.1
743.904	20.6
744.301	24.5
744.697	19.6
745.094	22.6
745.491	18.1
745.887	20
746.283	23.1
746.68	20.1
747.076	19.3
747.472	19.7
747.869	29.9
748.265	33.4
748.661	28.2
749.057	38.2
749.453	25.1
749.849	28.7
750.244	29.2
750.64	38.7
751.036	33.6
751.432	32
751.827	35.5
752.223	33.1
752.618	32.4
753.014	36.8
753.409	34
753.805	25.8
754.2	28.2
754.595	28.4
754.99	33.7
755.385	20.7
755.78	32.6
756.175	22.4
756.57	27.6
756.965	32.9
757.36	17.1
757.755	18.8
758.15	29.4
758.544	31.5
758.939	47.8
759.334	52
759.728	44.9
760.122	68.5
760.517	66.6
760.911	74.6
761.306	68.4
761.7	74.4
762.094	61.6
762.488	79.3
762.882	71.9
763.276	75.6
763.67	74.6
764.064	78.8
764.458	76.6
764.852	77.5
765.245	79.4
765.639	86.5
766.033	87.3
766.426	101.9
766.82	93.8
767.213	87.9
767.606	96.8
768	93.7
768.393	91.9
768.786	86.1
769.179	89.2
769.572	85.5
769.966	73.2
770.358	63.8
770.751	65.1
771.144	73.1
771.537	60.5
771.93	59.3
772.323	52.5
772.715	58.6
773.108	56.1
773.5	52.8
773.893	45.1
774.285	53.8
774.678	62
775.07	55
775.462	54.5
775.854	49
776.247	47
776.639	49.6
777.031	43.1
777.423	38.3
777.815	40.1
778.207	40.8
778.598	33.4
778.99	35.3
779.382	46
779.773	61.5
780.165	65.7
780.557	78.8
780.948	82.3
781.339	92.7
781.731	94
782.122	87.8
782.513	90.3
782.905	86.2
783.296	90.5
783.687	97.4
784.078	77.6
784.469	79.9
784.86	79.3
785.251	86.5
785.641	74.6
786.032	80.2
786.423	81.7
786.813	86.8
787.204	75.7
787.594	90.2
787.985	85.3
788.375	77.7
788.766	65.4
789.156	65.2
789.546	60.6
789.936	52.8
790.326	53.3
790.717	60.4
791.107	55.1
791.497	48.3
791.886	51.3
792.276	53.4
792.666	34.5
793.056	42
793.445	30.8
793.835	33.3
794.225	30.2
794.614	40.8
795.004	16.9
795.393	26.7
795.782	31.4
796.172	31.2
796.561	44.4
796.95	41.7
797.339	22.3
797.728	29.1
798.117	25.3
798.506	30.3
798.895	26.7
799.284	32.5
799.673	36.3
800.061	21.8
800.45	24.6
800.839	21
801.227	18.7
801.616	23.1
802.004	19.4
802.392	14.8
802.781	24.6
803.169	17.4
803.557	9.7
803.945	18.7
804.333	12.3
804.721	13.2
805.109	16.7
805.497	15.8
805.885	17.2
806.273	13.4
806.661	13.1
807.048	22.6
807.436	6.9
807.824	5.7
808.211	3.3
808.599	1.1
808.986	9.6
809.373	-0.1
809.761	8
810.148	6.2
810.535	14
810.922	14
811.309	3.6
811.696	11.9
812.083	17.1
812.47	12.5
812.857	14.5
813.244	6.4
813.631	6.3
814.017	-0.1
814.404	22.7
814.791	2.6
815.177	9.3
815.564	15.7
815.95	8.9
816.336	12.2
816.723	5.1
817.109	9.3
817.495	8.9
817.881	15.5
818.267	4.7
818.653	11.1
819.039	2
819.425	14.3
819.811	7.6
820.197	13.7
820.582	4.2
820.968	13.1
821.354	9.3
821.739	-2.3
822.125	9.8
822.51	10.4
822.895	13.7
823.281	8.6
823.666	10.7
824.051	4.9
824.436	5.1
824.822	-3.6
825.207	-2.1
825.592	0.2
825.976	10.5
826.361	6.5
826.746	5.5
827.131	8.8
827.516	8.7
827.9	11.2
828.285	3.9
828.669	0.1
829.054	7.2
829.438	8.9
829.823	4.7
830.207	0.6
830.591	22.7
830.975	13.8
831.36	4.1
831.744	7.7
832.128	8.5
832.512	5.2
832.895	6.8
833.279	-0.9
833.663	12.5
834.047	5.6
834.431	7.7
834.814	8.9
835.198	-3
835.581	2.4
835.965	6.8
836.348	9.4
836.731	6.7
837.115	14.3
837.498	11.6
837.881	14.6
838.264	6.8
838.647	12.1
839.03	2.5
839.413	7.3
839.796	9.9
840.179	9.8
840.562	14
840.944	-2
841.327	2.7
841.71	9.1
842.092	11.1
842.475	5.9
842.857	11.4
843.24	9
843.622	4.8
844.004	9.1
844.386	9.3
844.769	5.3
845.151	12.1
845.533	14.2
845.915	2.2
846.297	13.2
846.678	2.5
847.06	7.9
847.442	9.4
847.824	5.8
848.205	14.2
848.587	-2.8
848.968	15.7
849.35	0.8
849.731	3.9
850.113	2
850.494	15.1
850.875	5
851.256	11.5
851.638	8
852.019	6.3
852.4	4.4
852.781	12.1
853.161	16.4
853.542	6
853.923	10.4
854.304	8.7
854.685	12.8
855.065	15.9
855.446	9.3
855.826	10.4
856.207	8.9
856.587	11.7
856.967	11.9
857.348	13.7
857.728	10.2
858.108	12.1
858.488	9.4
858.868	8.9
859.248	13.2
859.628	8.9
860.008	6.9
860.388	12.5
860.768	3.7
861.147	6.1
861.527	12.5
861.907	8.8
862.286	16.7
862.666	26.4
863.045	11.6
863.424	9.6
863.804	1
864.183	11.1
864.562	4.7
864.941	8.1
865.32	7
865.699	3.3
866.078	3
866.457	14.6
866.836	-1.9
867.215	6.5
867.594	12.3
867.972	2.3
868.351	10.2
868.729	-0.1
869.108	8.6
869.486	9.2
869.865	8.9
870.243	10.2
870.621	10.9
871	2.8
871.378	14.4
871.756	17.1
872.134	13.1
872.512	14.5
872.89	16.7
873.268	11.7
873.646	17.8
874.023	1.2
874.401	0.6
874.779	12.7
875.156	5.9
875.534	0.1
875.911	5.3
876.289	1.4
876.666	-4.1
877.043	4.7
877.421	11.8
877.798	12.5
878.175	12.3
878.552	8.7
878.929	6.1
879.306	2.6
879.683	7.5
880.06	4.2
880.437	8.2
880.813	12.2
881.19	5.3
881.567	16.7
881.943	10.6
882.32	8.1
882.696	16.1
883.073	11.6
883.449	5.1
883.825	9.3
884.202	8.3
884.578	11.8
884.954	12.6
885.33	14.2
885.706	10.5
886.082	-1.6
886.458	15.4
886.834	20
887.209	10.1
887.585	5.8
887.961	19.3
888.336	9.2
888.712	17.2
889.087	6.9
889.463	15.9
889.838	9.4
890.213	10.2
890.589	12.5
890.964	11
891.339	16.8
891.714	11.7
892.089	9.4
892.464	14.1
892.839	12
893.214	10
893.589	15.7
893.963	14.7
894.338	5.2
894.713	3.2
895.087	11.8
895.462	14.7
895.836	6.3
896.211	8.6
896.585	9.7
896.959	9
897.334	11.3
897.708	5.6
898.082	6.5
898.456	5.4
898.83	12
899.204	15.5
899.578	9.1
899.952	10.4
900.325	9.5
900.699	-3.2
901.073	11.5
901.446	6.4
901.82	-2.5
902.193	9.7
902.567	12.5
902.94	8.6
903.313	17.3
903.687	5.5
904.06	2.2
904.433	13.8
904.806	13.9
905.179	12.5
905.552	16.1
905.925	14.9
906.298	11.9
906.671	13.5
907.043	11.3
907.416	16.1
907.789	10.7
908.161	12.2
908.534	28.5
908.906	19.6
909.279	14.5
909.651	19.3
910.023	9.2
910.396	10.6
910.768	18
911.14	13.2
911.512	14.9
911.884	19.2
912.256	11.9
912.628	12.7
912.999	12.8
913.371	-0.6
913.743	22.3
914.115	12.5
914.486	24.7
914.858	15
915.229	13.1
915.601	15.7
915.972	12.1
916.343	13.7
916.715	17.9
917.086	17.3
917.457	27.3
917.828	5.6
918.199	29.5
918.57	20.6
918.941	6.9
919.312	12.3
919.682	11.8
920.053	10.1
920.424	9.4
920.794	20.4
921.165	15.3
921.536	15.4
921.906	17.5
922.276	9.2
922.647	1.3
923.017	13.7
923.387	9.5
923.757	14.4
924.127	19.5
924.497	17
924.867	9.1
925.237	15.4
925.607	20.9
925.977	18.3
926.347	11.4
926.716	11.6
927.086	13.9
927.456	14.9
927.825	9.4
928.195	14
928.564	16.2
928.933	15
929.303	10.7
929.672	13.2
930.041	12.5
930.41	14
930.779	5
931.148	17.4
931.517	9.9
931.886	8.9
932.255	16.7
932.624	9.9
932.993	12.5
933.361	10.6
933.73	15.1
934.098	21.9
934.467	6.5
934.835	21.1
935.204	16.6
935.572	11.1
935.94	12
936.308	21.2
936.677	24.7
937.045	3.1
937.413	20.3
937.781	16.7
938.149	19.9
938.516	21.7
938.884	26.9
939.252	16.9
939.62	21
939.987	13.2
940.355	15.6
940.722	21.8
941.09	16.6
941.457	18.1
941.825	22
942.192	5
942.559	23.2
942.926	11.7
943.293	16.9
943.66	15
944.027	14.4
944.394	13.1
944.761	5.9
945.128	26
945.495	19.3
945.861	16
946.228	21.8
946.595	12
946.961	23.3
947.328	16.8
947.694	14.5
948.06	18.8
948.427	11.3
948.793	20
949.159	8.6
949.525	10.1
949.891	18
950.257	16.7
950.623	7.9
950.989	6.5
951.355	16.5
951.721	19.4
952.087	6.8
952.452	17.1
952.818	1.2
953.183	15
953.549	10.1
953.914	18.3
954.28	9.4
954.645	2.6
955.01	13.8
955.375	12.8
955.741	6
956.106	15.4
956.471	14.6
956.836	0.1
957.201	4.3
957.566	7.6
957.93	13.5
958.295	15.1
958.66	13.4
959.024	25.6
959.389	6
959.753	16.1
960.118	15.8
960.482	2.8
960.847	12.4
961.211	11.5
961.575	13.1
961.939	8.4
962.303	10.1
962.667	7.8
963.031	1.4
963.395	18.2
963.759	19.7
964.123	7.8
964.487	9.6
964.851	9.6
965.214	13.3
965.578	9.5
965.941	4.2
966.305	0.8
966.668	19.4
967.032	10.3
967.395	10.6
967.758	4.6
968.121	11.2
968.484	17.7
968.847	13.8
969.21	2.5
969.573	7.6
969.936	0.9
970.299	7.3
970.662	18.2
971.025	4.4
971.387	5.3
971.75	14.6
972.112	8.4
972.475	16.2
972.837	20.1
973.2	12.9
973.562	15.8
973.924	10.5
974.286	5.2
974.649	5.8
975.011	14.3
975.373	12.2
975.735	7.8
976.097	6.9
976.458	10.6
976.82	14
977.182	13.3
977.544	6.8
977.905	8.2
978.267	13.2
978.628	17.1
978.99	10.7
979.351	15.2
979.712	10
980.074	8.4
980.435	19.2
980.796	8
981.157	11.7
981.518	15.7
981.879	7.8
982.24	10.7
982.601	12.7
982.962	11.9
983.323	6
983.683	9.8
984.044	8.5
984.404	6.8
984.765	13.8
985.125	13.2
985.486	-1.2
985.846	3.6
986.206	1.8
986.567	4.5
986.927	9.5
987.287	9.5
987.647	3.9
988.007	6.7
988.367	15.1
988.727	6.4
989.087	6.8
989.446	9.3
989.806	9.6
990.166	4
990.525	11
990.885	5.5
991.244	1.7
991.604	6.7
991.963	9.8
992.322	11.6
992.682	5.5
993.041	11.6
993.4	0
993.759	6.9
994.118	8.9
994.477	5.3
994.836	17.9
995.195	13.2
995.553	8.5
995.912	6.5
996.271	21
996.629	11.3
996.988	9.8
997.346	12.4
997.705	4.9
998.063	19.1
998.422	7.8
998.78	12.5
999.138	6
999.496	11.9
999.854	11.8
1000.212	5.5
1000.57	3.9
1000.928	5.2
1001.286	7.6
1001.644	16.3
1002.001	3.4
1002.359	8.9
1002.717	23.4
1003.074	13.4
1003.432	7
1003.789	-1.5
1004.147	20.4
1004.504	1.6
1004.861	10.5
1005.218	13.7
1005.576	8.6
1005.933	15.7
1006.29	4.3
1006.647	7
1007.004	8.2
1007.36	9.7
1007.717	11.9
1008.074	20.4
1008.431	16.1
1008.787	1.4
1009.144	5.5
1009.5	10.8
1009.857	5.7
1010.213	9.7
1010.569	14.5
1010.926	17.5
1011.282	10
1011.638	10.5
1011.994	3.3
1012.35	8.6
1012.706	14.7
1013.062	12.6
1013.418	13.2
1013.774	5.6
1014.13	9.7
1014.485	16.6
1014.841	4.2
1015.197	7.1
1015.552	3.2
1015.907	6.2
1016.263	12.5
1016.618	1.7
1016.974	14.3
1017.329	8.5
1017.684	9
1018.039	10.7
1018.394	1.8
1018.749	-5.2
1019.104	-2.2
1019.459	11.1
1019.814	9.6
1020.168	7.9
1020.523	7.9
1020.878	17.4
1021.232	0.7
1021.587	13.4
1021.941	8.2
1022.296	14.2
1022.65	2.1
1023.004	13.7
1023.359	4.2
1023.713	7.3
1024.067	2.2
1024.421	4.7
1024.775	3.2
1025.129	9
1025.483	12.4
1025.837	4.2
1026.19	10.2
1026.544	2.4
1026.898	8.1
1027.251	7.7
1027.605	2.9
1027.958	0.4
1028.312	8.3
1028.665	9.1
1029.018	12.3
1029.372	5.9
1029.725	7.3
1030.078	0.1
1030.431	15.4
1030.784	11.6
1031.137	4.1
1031.49	1.2
1031.843	8.7
1032.195	10
1032.548	3.4
1032.901	9.1
1033.253	9.3
1033.606	9.3
1033.958	19.3
1034.311	8.7
1034.663	2.5
1035.016	3.9
1035.368	-2.1
1035.72	6.9
1036.072	2.9
1036.424	7.6
1036.776	11.1
1037.128	0.4
1037.48	0.2
