Data from 2.0bar_Subt2__0__19-58-11-504.txt Node

Date: Thu Jan 06 19:58:11 CET 2022
User: fsatto
Spectrometer: OFX01956
Trigger mode: 0
Integration Time (sec): 2.000000E-3
Scans to average: 10
Nonlinearity correction enabled: false
Boxcar width: 0
Storing dark spectrum: false
XAxis mode: Wavelengths
Number of Pixels in Spectrum: 2136
>>>>>Begin Spectral Data<<<<<
158.236	10
158.705	14
159.174	15.9
159.643	13.2
160.112	7.1
160.582	8
161.051	7.3
161.52	6
161.988	9.3
162.457	6.3
162.926	-1
163.395	10.4
163.864	3.8
164.332	5.8
164.801	6.3
165.269	19.8
165.738	16.2
166.206	7.6
166.675	12.1
167.143	15.2
167.612	15.6
168.08	6.9
168.548	6.2
169.016	12.4
169.484	7.1
169.952	10.4
170.42	5.8
170.888	8.4
171.356	12.7
171.824	6.8
172.292	10.5
172.759	13.1
173.227	4.2
173.695	8.6
174.162	9.4
174.63	1.6
175.097	9.9
175.565	10.7
176.032	10.2
176.499	12.4
176.967	14.7
177.434	8
177.901	10.3
178.368	6.8
178.835	21.9
179.302	16.1
179.769	9.1
180.236	8.1
180.703	7.3
181.17	7.3
181.637	2.9
182.103	4.6
182.57	6.3
183.036	10.6
183.503	-1.5
183.97	11
184.436	1.6
184.902	2.2
185.369	8
185.835	13.2
186.301	4.5
186.767	6.4
187.234	6.3
187.7	12.3
188.166	9.8
188.632	7.7
189.098	9.7
189.563	9.7
190.029	6.4
190.495	3.6
190.961	1.6
191.426	3.7
191.892	8.5
192.358	2.3
192.823	12.9
193.289	1.3
193.754	12.4
194.219	14.8
194.685	13.6
195.15	15.3
195.615	10.7
196.08	3.7
196.545	18.9
197.01	10.2
197.475	12.7
197.94	5.6
198.405	14
198.87	11.8
199.335	13.3
199.8	19.1
200.264	334.3
200.729	344.4
201.193	356.1
201.658	344
202.122	360.4
202.587	375.1
203.051	387.9
203.516	383.8
203.98	382.7
204.444	396
204.908	436.6
205.372	429.6
205.836	432.5
206.3	422.4
206.764	443
207.228	452.5
207.692	468.9
208.156	461.7
208.62	474.1
209.083	488.2
209.547	520.7
210.011	539
210.474	581.5
210.938	627.3
211.401	677.9
211.864	699.7
212.328	777.1
212.791	834
213.254	928.5
213.717	1052.3
214.181	1125.4
214.644	1257.4
215.107	1396.2
215.57	1426.3
216.033	1565.3
216.495	1732
216.958	1878.7
217.421	1977.4
217.884	2155.7
218.346	2254
218.809	2319.4
219.272	2542
219.734	2833.6
220.196	3016.6
220.659	3278.9
221.121	3424.3
221.584	3489
222.046	3528.1
222.508	3514
222.97	3668.8
223.432	4020.3
223.894	4448.4
224.356	4654.7
224.818	4765.7
225.28	4984.2
225.742	5335
226.204	5954.4
226.665	6429.6
227.127	6508.1
227.589	6240.5
228.05	6527.1
228.512	7002.9
228.973	7258.6
229.435	7518.1
229.896	7664.5
230.357	7704.4
230.818	7575.7
231.28	7814.7
231.741	8117.5
232.202	8191.1
232.663	7883.9
233.124	7590.5
233.585	7578.2
234.046	8142.6
234.507	8684
234.967	8887
235.428	8416.7
235.889	8066.3
236.349	8325
236.81	8784.5
237.271	9193.5
237.731	9317.6
238.191	9109.6
238.652	8453.3
239.112	8047
239.572	8577.6
240.033	9136.7
240.493	8844.5
240.953	8046.7
241.413	7351
241.873	7318.5
242.333	7540
242.793	7647.5
243.253	8076.9
243.712	8434.8
244.172	8465.2
244.632	8853
245.092	9220.9
245.551	9811.9
246.011	10522.4
246.47	10560.4
246.93	9950.5
247.389	10175.4
247.848	11361.1
248.308	12587.9
248.767	13688
249.226	13645.1
249.685	12494.4
250.144	11781.4
250.603	12497.6
251.062	13832
251.521	14477.6
251.98	14821.8
252.439	14742.9
252.897	14359.4
253.356	14238.2
253.815	14559.8
254.273	14439.3
254.732	14430
255.19	13787.9
255.649	13127.2
256.107	12718.1
256.566	12878.9
257.024	13020.4
257.482	12838
257.94	12440.1
258.398	12562.5
258.856	12597
259.315	12473.3
259.772	12610.3
260.23	13236.3
260.688	13288.8
261.146	12603.6
261.604	12085.5
262.062	11888.4
262.519	11692
262.977	11274.1
263.434	11067.7
263.892	11076.3
264.349	10289.8
264.807	9452.7
265.264	8991.5
265.721	8918.1
266.179	8992
266.636	8604.4
267.093	7699.7
267.55	7285.4
268.007	7252.3
268.464	7297.8
268.921	7267.3
269.378	7394.3
269.835	7310.9
270.291	6828.7
270.748	6287.9
271.205	6238.6
271.661	6350.1
272.118	6377.2
272.574	5998.1
273.031	5607.6
273.487	5186.9
273.944	4806
274.4	4527.3
274.856	4447.6
275.312	4307.6
275.768	3988.4
276.225	3700.6
276.681	3601.3
277.137	3535.5
277.593	3503.7
278.048	3513.9
278.504	3491
278.96	3407
279.416	3295.5
279.871	3246.7
280.327	3192
280.783	3125
281.238	3083.9
281.694	3080.4
282.149	3015.1
282.604	2903.9
283.06	2756.9
283.515	2684.3
283.97	2551.5
284.425	2461.1
284.88	2458
285.335	2389.2
285.79	2266.3
286.245	2124.1
286.7	1987.5
287.155	1908.6
287.61	1890.7
288.064	1797.4
288.519	1745.7
288.974	1636.7
289.428	1531.9
289.883	1491.1
290.337	1489.4
290.792	1450.8
291.246	1423.9
291.7	1403.5
292.155	1399.6
292.609	1362
293.063	1287.6
293.517	1237.7
293.971	1216.5
294.425	1172.8
294.879	1153.2
295.333	1110.6
295.787	1051.1
296.241	939.5
296.694	871.5
297.148	831
297.602	725.7
298.055	686.3
298.509	651.5
298.962	605.9
299.416	523.2
299.869	479.3
300.322	412.1
300.775	404.9
301.229	362.6
301.682	317.4
302.135	288.3
302.588	250
303.041	236.4
303.494	220.2
303.947	198.7
304.4	170.5
304.852	174.7
305.305	152.9
305.758	161.3
306.21	158
306.663	143.1
307.115	144.2
307.568	150.9
308.02	140.1
308.473	131.9
308.925	125.3
309.377	127.1
309.829	120
310.282	102
310.734	94.2
311.186	98.2
311.638	102.3
312.09	86.4
312.542	78.9
312.993	83.4
313.445	79
313.897	79.8
314.349	73
314.8	63.4
315.252	57.5
315.703	54.3
316.155	65
316.606	55.9
317.058	51.6
317.509	56.2
317.96	49.8
318.411	38.4
318.863	39.7
319.314	41.5
319.765	43.7
320.216	40.6
320.667	37.1
321.117	35
321.568	40.6
322.019	35.8
322.47	38.4
322.921	35.3
323.371	28.1
323.822	30.8
324.272	33.8
324.723	35.8
325.173	9.2
325.623	29.8
326.074	17
326.524	17.3
326.974	16.3
327.424	18.8
327.874	27.3
328.325	20.2
328.775	20.6
329.224	27
329.674	23.3
330.124	20.6
330.574	18.3
331.024	27.3
331.473	9
331.923	27.2
332.373	8.5
332.822	18.8
333.272	14.5
333.721	18.4
334.17	14.5
334.62	14.2
335.069	7.7
335.518	10.7
335.967	19.7
336.416	20.7
336.865	16.4
337.314	8.1
337.763	21
338.212	23.7
338.661	15.4
339.11	7.7
339.558	15.8
340.007	20.9
340.456	15.7
340.904	12.4
341.353	19.4
341.801	10.7
342.25	13.3
342.698	14.3
343.146	16.3
343.595	18.7
344.043	18.1
344.491	20
344.939	11.4
345.387	18.3
345.835	14.5
346.283	20.2
346.731	19.3
347.179	7.5
347.626	15.8
348.074	18.8
348.522	14.2
348.969	9
349.417	11
349.865	12.8
350.312	14.8
350.759	14.5
351.207	11.5
351.654	5.5
352.101	11.4
352.548	5.4
352.996	9
353.443	11.8
353.89	13.7
354.337	22.3
354.784	10.6
355.231	13.2
355.677	20.5
356.124	11.3
356.571	14.9
357.018	13.1
357.464	6.6
357.911	9
358.357	14
358.804	8.2
359.25	17.9
359.696	4.1
360.143	19.6
360.589	12.1
361.035	6.9
361.481	12.6
361.927	4.6
362.373	15.8
362.819	20.2
363.265	9.8
363.711	5.7
364.157	9.7
364.603	17.2
365.048	4.5
365.494	20.4
365.94	12
366.385	5.6
366.831	5.2
367.276	12.5
367.722	14.6
368.167	10.7
368.612	11.5
369.057	14.4
369.503	11
369.948	17.5
370.393	4.9
370.838	14.3
371.283	10.6
371.728	9.2
372.173	12.8
372.617	18.5
373.062	9.8
373.507	12.9
373.951	14.1
374.396	15.1
374.841	2
375.285	6.4
375.729	11.2
376.174	17.6
376.618	8.3
377.062	4.7
377.507	12.8
377.951	12.9
378.395	8.2
378.839	16.5
379.283	8.6
379.727	9.4
380.171	13.8
380.615	18.2
381.059	12.4
381.502	10.7
381.946	13.9
382.39	6
382.833	7.6
383.277	7.3
383.72	7.3
384.164	10.2
384.607	11
385.05	9.1
385.494	14.2
385.937	18
386.38	13.7
386.823	1.7
387.266	6.5
387.709	15.2
388.152	17.9
388.595	16
389.038	7.1
389.481	19.8
389.923	12.3
390.366	6.5
390.809	6.6
391.251	3
391.694	8.1
392.136	6.6
392.579	12.1
393.021	3.9
393.463	16
393.906	16
394.348	17.6
394.79	14
395.232	12.7
395.674	14.9
396.116	7.3
396.558	14.6
397	10.9
397.442	9.3
397.884	16
398.325	6.9
398.767	6.3
399.209	3.8
399.65	12.3
400.092	19.1
400.533	20.9
400.974	17.1
401.416	6
401.857	11.2
402.298	14.2
402.74	15.7
403.181	17.9
403.622	4.5
404.063	15.9
404.504	8.1
404.945	16.1
405.386	15.6
405.826	20.4
406.267	12
406.708	3
407.149	16.8
407.589	11.5
408.03	10
408.47	11.6
408.911	16.5
409.351	13.2
409.791	5.8
410.232	12
410.672	10.9
411.112	11.9
411.552	14.3
411.992	20.4
412.432	8.3
412.872	5.9
413.312	14.3
413.752	14.2
414.192	15.3
414.632	6.3
415.071	10.7
415.511	17.8
415.951	16.3
416.39	14.1
416.83	10
417.269	11.9
417.708	18.8
418.148	14.1
418.587	18.6
419.026	13.3
419.465	14
419.904	12.5
420.344	12.8
420.783	16.9
421.221	7.1
421.66	13.6
422.099	15
422.538	14.3
422.977	11.8
423.415	13.2
423.854	17.2
424.293	4.7
424.731	22.3
425.17	22.1
425.608	11.9
426.046	15
426.485	17.6
426.923	20
427.361	15.4
427.799	21.2
428.237	6.1
428.675	20.3
429.113	18
429.551	14.3
429.989	11.8
430.427	18.8
430.865	10.2
431.303	16.1
431.74	11.5
432.178	4.2
432.615	8.9
433.053	13.7
433.49	11
433.928	21.8
434.365	18.9
434.802	9.4
435.24	18.5
435.677	13.2
436.114	16.7
436.551	12.1
436.988	20
437.425	16.7
437.862	9.7
438.299	10.8
438.736	15.1
439.172	9.2
439.609	23.2
440.046	17.6
440.482	19.6
440.919	21.3
441.355	24.9
441.792	15.4
442.228	6.1
442.665	12.5
443.101	9.8
443.537	2.9
443.973	10.2
444.409	13.7
444.845	7.4
445.281	5.8
445.717	13.8
446.153	9.7
446.589	6.6
447.025	13
447.461	15.4
447.896	8.8
448.332	5.7
448.768	14.4
449.203	9.7
449.639	8.4
450.074	6.2
450.509	26.6
450.945	13.1
451.38	15
451.815	14.7
452.25	9.2
452.685	10.2
453.12	7.3
453.555	15.5
453.99	9.7
454.425	12.5
454.86	10.6
455.295	22.9
455.73	19.9
456.164	16.4
456.599	4.8
457.033	12.5
457.468	15.7
457.902	15.8
458.337	14
458.771	8.5
459.205	8
459.64	13.7
460.074	2
460.508	11.5
460.942	10.7
461.376	7.4
461.81	14.5
462.244	8.8
462.678	10.3
463.112	12.2
463.545	3.1
463.979	11.6
464.413	21.8
464.846	9.7
465.28	14.6
465.713	11
466.147	10.9
466.58	5.1
467.014	18.7
467.447	18.7
467.88	8.2
468.313	13.2
468.746	10.8
469.179	14.1
469.612	14.3
470.045	13
470.478	7.9
470.911	8.5
471.344	10.9
471.777	15.4
472.209	23.4
472.642	23.6
473.074	6.1
473.507	11.7
473.939	13.1
474.372	17.7
474.804	6.9
475.236	11.3
475.669	11.4
476.101	18
476.533	21.7
476.965	18.2
477.397	19.8
477.829	21.8
478.261	17
478.693	14.8
479.125	20.8
479.557	12.5
479.988	17.1
480.42	13.4
480.852	22.3
481.283	10.5
481.715	10.1
482.146	22.4
482.577	19.8
483.009	20.1
483.44	10.8
483.871	19.1
484.302	14.1
484.734	14.3
485.165	10.6
485.596	12.6
486.027	15.8
486.457	21.4
486.888	15.3
487.319	21.4
487.75	22.1
488.181	16.2
488.611	10.5
489.042	25.2
489.472	13.1
489.903	6.1
490.333	16.2
490.764	8.5
491.194	13.1
491.624	17
492.054	8.5
492.484	11.5
492.915	21.6
493.345	15.7
493.775	13.5
494.204	16.1
494.634	5.6
495.064	9.7
495.494	14.2
495.924	9.1
496.353	14.8
496.783	8.1
497.212	18.3
497.642	4.7
498.071	12.8
498.501	16.1
498.93	16.7
499.359	18.5
499.789	7.3
500.218	9.1
500.647	15.3
501.076	9.2
501.505	11.1
501.934	10.3
502.363	7.6
502.792	15.7
503.221	8.2
503.649	9.8
504.078	10.1
504.507	5.6
504.935	10.6
505.364	19.5
505.792	9
506.221	9.9
506.649	13.2
507.077	12.3
507.506	8.1
507.934	12.2
508.362	16.3
508.79	13.5
509.218	17.1
509.646	13.7
510.074	16.1
510.502	14
510.93	6.9
511.357	12.6
511.785	14
512.213	5
512.64	11.6
513.068	6
513.496	14.5
513.923	7.5
514.35	8.5
514.778	8.2
515.205	23.7
515.632	2.9
516.059	2.7
516.486	5.4
516.914	14.1
517.341	6.4
517.768	16.3
518.194	13.6
518.621	13.2
519.048	13.4
519.475	6.3
519.902	9.2
520.328	6.3
520.755	12.8
521.181	9
521.608	19.2
522.034	20.1
522.461	5.2
522.887	14.8
523.313	15.4
523.739	18.6
524.165	8.5
524.592	13.9
525.018	4.9
525.444	9.8
525.869	10.1
526.295	20.2
526.721	13.8
527.147	8.6
527.573	5
527.998	10.1
528.424	6.6
528.849	12.4
529.275	15.7
529.7	11.1
530.126	10.2
530.551	8.9
530.976	13.1
531.402	10.7
531.827	20
532.252	7.8
532.677	15.7
533.102	11.7
533.527	21.6
533.952	15.4
534.377	19.6
534.801	22.2
535.226	19.5
535.651	17.5
536.076	16
536.5	20.4
536.925	5.5
537.349	17.9
537.773	11
538.198	11.7
538.622	2.5
539.046	8
539.471	13.6
539.895	12.7
540.319	6.8
540.743	7.1
541.167	16.5
541.591	2.6
542.015	12.5
542.438	15.2
542.862	13.3
543.286	18.8
543.71	3.5
544.133	20.4
544.557	9.5
544.98	6.5
545.404	14.3
545.827	13.8
546.25	9.1
546.674	16.2
547.097	17.1
547.52	3.4
547.943	13.3
548.366	22.1
548.789	12.8
549.212	11.9
549.635	12.4
550.058	9.2
550.481	18.6
550.903	16
551.326	12.9
551.749	3.8
552.171	21.3
552.594	10.6
553.016	12.1
553.438	9.9
553.861	14.3
554.283	15.5
554.705	5.4
555.128	11.7
555.55	12.7
555.972	8.8
556.394	6.8
556.816	7.9
557.238	12.4
557.659	3.9
558.081	8.7
558.503	11.1
558.925	18.1
559.346	22.3
559.768	15.3
560.189	16.7
560.611	13.3
561.032	13.6
561.454	12.5
561.875	18
562.296	15.4
562.718	15
563.139	4
563.56	6.8
563.981	14.1
564.402	16.8
564.823	20
565.244	10.9
565.664	1.9
566.085	22.3
566.506	14.1
566.927	6.2
567.347	5.8
567.768	0.3
568.188	14.1
568.609	26.5
569.029	23
569.449	13.8
569.87	13.2
570.29	11
570.71	10.3
571.13	10.2
571.55	16.2
571.97	9.5
572.39	17.4
572.81	6.9
573.23	8.2
573.65	4.3
574.069	17.4
574.489	7.3
574.909	7.9
575.328	10.7
575.748	2.6
576.167	10.3
576.587	9.1
577.006	8.4
577.425	12
577.844	9.9
578.264	19.8
578.683	10.9
579.102	14.9
579.521	16.3
579.94	16.6
580.359	9
580.778	3.8
581.196	19.7
581.615	5.2
582.034	12.7
582.452	7.6
582.871	13
583.29	12.4
583.708	29.8
584.126	18.4
584.545	19.7
584.963	16.2
585.381	18.5
585.8	14.2
586.218	8.5
586.636	5.2
587.054	14.7
587.472	15.7
587.89	14.6
588.308	14.7
588.725	14.5
589.143	5.7
589.561	5.6
589.979	10.7
590.396	7.5
590.814	9.5
591.231	10.3
591.649	15
592.066	17.1
592.483	14.5
592.901	10.4
593.318	12.8
593.735	6.9
594.152	10.3
594.569	12.4
594.986	25.2
595.403	8
595.82	6.2
596.237	11.6
596.654	15.9
597.07	0.4
597.487	19.1
597.904	19.4
598.32	12.5
598.737	12.5
599.153	8.7
599.57	2.4
599.986	14.8
600.402	9.8
600.818	12
601.235	15.8
601.651	12.8
602.067	11.6
602.483	15.8
602.899	6.8
603.315	11.9
603.73	7.2
604.146	16.1
604.562	14.8
604.978	11.6
605.393	8.5
605.809	16.3
606.224	3.1
606.64	17.2
607.055	9.8
607.471	16.5
607.886	13.9
608.301	6
608.716	17.2
609.131	11.4
609.547	9.9
609.962	15.4
610.377	16.8
610.791	20
611.206	10.9
611.621	12.3
612.036	1.3
612.451	12.9
612.865	6.9
613.28	10.1
613.694	9.5
614.109	5
614.523	8.9
614.938	4.1
615.352	12.7
615.766	14.8
616.18	8.3
616.595	19
617.009	18.1
617.423	23.7
617.837	11.1
618.251	6.8
618.664	26.8
619.078	8.9
619.492	22.6
619.906	14.3
620.319	13.2
620.733	13
621.146	19.8
621.56	17.5
621.973	22
622.387	18.3
622.8	17.2
623.213	26.5
623.627	17.1
624.04	27.5
624.453	21.1
624.866	26.8
625.279	29.5
625.692	33.8
626.105	31.8
626.518	29.1
626.93	20
627.343	39.9
627.756	34.4
628.168	24.8
628.581	29.3
628.993	43.9
629.406	33.5
629.818	34.7
630.231	31.6
630.643	40
631.055	41.4
631.467	47.7
631.879	49.1
632.291	43
632.703	54.1
633.115	58.7
633.527	51.7
633.939	65.6
634.351	63.4
634.763	69.7
635.174	68
635.586	68.9
635.997	79.6
636.409	83.5
636.82	92.4
637.232	88.7
637.643	89.2
638.054	86.7
638.466	90.6
638.877	90.2
639.288	98.9
639.699	103.6
640.11	87.5
640.521	107.1
640.932	103.4
641.343	116
641.753	109.5
642.164	115.3
642.575	112.8
642.986	111.5
643.396	127.2
643.807	119.1
644.217	115.2
644.627	120.6
645.038	116.4
645.448	125.9
645.858	117.7
646.269	111.6
646.679	126.9
647.089	118.1
647.499	106.6
647.909	105.4
648.319	97
648.728	103.1
649.138	92.6
649.548	98.4
649.958	95.4
650.367	78.5
650.777	83.6
651.186	88.7
651.596	89.4
652.005	72.1
652.415	72.9
652.824	77
653.233	69.2
653.642	84.5
654.052	68
654.461	71.5
654.87	75
655.279	64.5
655.688	65.9
656.096	69.4
656.505	54.3
656.914	68.2
657.323	61.2
657.731	57
658.14	63.8
658.548	62.4
658.957	65.9
659.365	56.8
659.774	60.3
660.182	56.4
660.59	62.5
660.998	61.7
661.407	69.9
661.815	57.6
662.223	63.7
662.631	56.3
663.039	46.9
663.446	55
663.854	47.4
664.262	37.9
664.67	45.4
665.077	38.8
665.485	43.6
665.892	45.3
666.3	42.5
666.707	43.1
667.115	41.6
667.522	49.4
667.929	40.7
668.337	42.9
668.744	40
669.151	39.7
669.558	44
669.965	30.2
670.372	28.9
670.779	27.4
671.185	33.9
671.592	25.9
671.999	22.1
672.405	28.2
672.812	22.6
673.219	21.8
673.625	14.2
674.032	20.3
674.438	18
674.844	13.4
675.25	25.2
675.657	20.5
676.063	19.2
676.469	5.7
676.875	6.4
677.281	18.9
677.687	9.4
678.093	15.7
678.499	6.8
678.904	18.2
679.31	8.2
679.716	11.1
680.121	13.5
680.527	13.2
680.932	12.9
681.338	10.2
681.743	20.5
682.148	5.7
682.554	8.2
682.959	9.8
683.364	4.7
683.769	9.9
684.174	11.8
684.579	1.8
684.984	9.6
685.389	-3.5
685.794	9.1
686.199	5.6
686.603	8.8
687.008	10
687.413	12
687.817	17.6
688.222	14.3
688.626	9.6
689.03	12.7
689.435	11.2
689.839	13
690.243	6.3
690.647	12
691.051	6.5
691.456	0.2
691.859	9.7
692.263	8.1
692.667	14.5
693.071	6
693.475	11.8
693.879	7.6
694.282	11.6
694.686	11.7
695.089	15
695.493	4.4
695.896	12
696.3	18
696.703	5.1
697.106	12.9
697.509	0.6
697.913	8.9
698.316	16.1
698.719	14.4
699.122	10.1
699.525	14
699.928	13.1
700.33	7.3
700.733	7.6
701.136	22.7
701.539	3.1
701.941	11.5
702.344	12.4
702.746	8.5
703.149	9.8
703.551	14.6
703.953	12.5
704.356	16.7
704.758	9.3
705.16	10.2
705.562	12.7
705.964	7.7
706.366	10.3
706.768	11.3
707.17	13.1
707.572	14.2
707.973	14
708.375	16.9
708.777	10
709.178	8.3
709.58	14.3
709.981	8.1
710.383	9.3
710.784	6.9
711.186	9.2
711.587	21.7
711.988	8.1
712.389	11.5
712.79	13.9
713.191	16.3
713.592	4.4
713.993	10.5
714.394	13.6
714.795	2.4
715.196	4.4
715.596	13.3
715.997	12
716.398	12
716.798	14.4
717.199	12.3
717.599	10.3
718	10.4
718.4	8.7
718.8	10.2
719.2	17.9
719.6	9.6
720.001	10.1
720.401	9.9
720.801	5.4
721.201	5.8
721.6	18.2
722	5.3
722.4	15.8
722.8	9
723.199	12.4
723.599	15.6
723.998	6.8
724.398	2.9
724.797	4.2
725.197	9.4
725.596	14.3
725.995	14.9
726.394	10.7
726.794	8.2
727.193	17
727.592	13.4
727.991	10.3
728.39	2.4
728.789	11.2
729.187	9.1
729.586	13.2
729.985	11
730.383	14.1
730.782	15.7
731.181	9.3
731.579	14.8
731.977	21.8
732.376	12.1
732.774	10.5
733.172	5
733.571	13.7
733.969	19.4
734.367	13.7
734.765	9.1
735.163	10.7
735.561	17.9
735.959	17.8
736.356	12.1
736.754	9.2
737.152	6.4
737.55	8
737.947	17.2
738.345	22.4
738.742	15.7
739.14	7.4
739.537	18.1
739.934	16.4
740.331	15.4
740.729	22.5
741.126	13.6
741.523	22.2
741.92	24.2
742.317	27.1
742.714	24.5
743.111	16.9
743.507	28.3
743.904	19
744.301	17.8
744.697	18.1
745.094	25.8
745.491	24.9
745.887	23.7
746.283	22.4
746.68	22.3
747.076	16.2
747.472	24.9
747.869	22
748.265	24.4
748.661	19.9
749.057	23.8
749.453	21.5
749.849	17.5
750.244	16.3
750.64	21
751.036	21.9
751.432	16
751.827	17.6
752.223	23
752.618	26.4
753.014	31.7
753.409	28.4
753.805	26.1
754.2	11.6
754.595	26
754.99	28.1
755.385	23.9
755.78	34.4
756.175	42.4
756.57	26.7
756.965	32.6
757.36	34.3
757.755	37.3
758.15	34
758.544	49.9
758.939	39.1
759.334	56.7
759.728	56.7
760.122	54.7
760.517	56
760.911	57.5
761.306	52.7
761.7	60.5
762.094	50.1
762.488	46.5
762.882	40
763.276	43.8
763.67	51.6
764.064	41.9
764.458	47.6
764.852	50.7
765.245	56.5
765.639	61.6
766.033	60.5
766.426	67.1
766.82	72.5
767.213	70.8
767.606	82.5
768	66.1
768.393	60.7
768.786	68.2
769.179	71.2
769.572	66.5
769.966	74.9
770.358	67.1
770.751	63.4
771.144	62
771.537	58.5
771.93	56.4
772.323	64.9
772.715	53.8
773.108	51.4
773.5	49.2
773.893	49
774.285	53.3
774.678	64.5
775.07	41
775.462	43.7
775.854	46.4
776.247	43.1
776.639	42.6
777.031	30.1
777.423	27.1
777.815	28.5
778.207	32.3
778.598	33.4
778.99	32.4
779.382	31.3
779.773	35.2
780.165	46.7
780.557	44.1
780.948	49.6
781.339	55.6
781.731	57.1
782.122	69.4
782.513	63.1
782.905	64.5
783.296	68.8
783.687	61
784.078	73.2
784.469	66.7
784.86	71.5
785.251	58.9
785.641	42.4
786.032	59.5
786.423	57.2
786.813	58.1
787.204	62.2
787.594	60.5
787.985	45.3
788.375	47.2
788.766	48.2
789.156	42.8
789.546	22.9
789.936	34.5
790.326	37.9
790.717	38.4
791.107	32.6
791.497	31.1
791.886	29.5
792.276	24.3
792.666	30
793.056	27.8
793.445	26.5
793.835	28
794.225	22.7
794.614	30.2
795.004	30.1
795.393	23.9
795.782	32.4
796.172	27.7
796.561	28.8
796.95	22.5
797.339	23.9
797.728	36.4
798.117	21.1
798.506	20.1
798.895	24.7
799.284	28.6
799.673	24.5
800.061	16.6
800.45	24.8
800.839	24.4
801.227	19.5
801.616	13.7
802.004	16.8
802.392	15.5
802.781	17.8
803.169	16.6
803.557	24.1
803.945	15.9
804.333	13.3
804.721	15.9
805.109	11.3
805.497	17.6
805.885	18.2
806.273	16.8
806.661	9.5
807.048	25.8
807.436	9.7
807.824	6
808.211	12.9
808.599	17.2
808.986	15.2
809.373	9.5
809.761	15.5
810.148	22.9
810.535	15.8
810.922	19
811.309	23.1
811.696	8.4
812.083	20.4
812.47	16.5
812.857	15.8
813.244	7.1
813.631	9.2
814.017	11.9
814.404	14.4
814.791	17.5
815.177	12.6
815.564	15.2
815.95	5.2
816.336	8.9
816.723	16.6
817.109	9.7
817.495	18.5
817.881	16.2
818.267	13.1
818.653	13.3
819.039	9.5
819.425	9.8
819.811	7
820.197	11.9
820.582	10.9
820.968	7.1
821.354	16.8
821.739	18
822.125	13.9
822.51	12
822.895	13.3
823.281	20.4
823.666	11.4
824.051	13.6
824.436	13.7
824.822	11.3
825.207	12.4
825.592	18
825.976	18.9
826.361	16.1
826.746	17.4
827.131	17.8
827.516	16.1
827.9	5.8
828.285	9.9
828.669	18.3
829.054	17.3
829.438	13.4
829.823	20
830.207	1.3
830.591	4
830.975	12.2
831.36	10.4
831.744	3.2
832.128	12.1
832.512	14
832.895	15.8
833.279	15.4
833.663	7.6
834.047	5.4
834.431	4.9
834.814	19.4
835.198	14.2
835.581	11.5
835.965	11.1
836.348	5.2
836.731	5.2
837.115	12.1
837.498	12.1
837.881	17.2
838.264	7
838.647	15.8
839.03	5.8
839.413	9.9
839.796	14.7
840.179	12.8
840.562	7.5
840.944	17.4
841.327	12.7
841.71	5.4
842.092	7.8
842.475	11.3
842.857	10.5
843.24	12
843.622	6.8
844.004	4.4
844.386	13.2
844.769	12.9
845.151	9.9
845.533	9
845.915	8.5
846.297	17.6
846.678	12.4
847.06	15.2
847.442	7.4
847.824	6.2
848.205	5.3
848.587	10.8
848.968	14.4
849.35	22.5
849.731	6.7
850.113	11.9
850.494	5.9
850.875	5.5
851.256	10.3
851.638	9.1
852.019	8.6
852.4	16.1
852.781	12.8
853.161	9.3
853.542	16.8
853.923	22.8
854.304	14.8
854.685	15.3
855.065	14.6
855.446	11.9
855.826	9.2
856.207	19.2
856.587	6.4
856.967	13.8
857.348	4.7
857.728	19.2
858.108	18.1
858.488	13.7
858.868	10.1
859.248	5.6
859.628	11.9
860.008	1.4
860.388	4.7
860.768	8
861.147	13.1
861.527	14.1
861.907	8.4
862.286	14.6
862.666	13.8
863.045	21.4
863.424	17.1
863.804	17.9
864.183	13.2
864.562	10.5
864.941	17.1
865.32	21
865.699	10.1
866.078	9.4
866.457	14.6
866.836	14.3
867.215	18.7
867.594	11.4
867.972	2.3
868.351	24.3
868.729	13.8
869.108	23.4
869.486	8.9
869.865	13.6
870.243	10.4
870.621	5.6
871	15.3
871.378	10.1
871.756	15.4
872.134	14.3
872.512	14.2
872.89	24.6
873.268	6.4
873.646	9.8
874.023	18.6
874.401	7.8
874.779	17.1
875.156	13.5
875.534	13.2
875.911	5
876.289	12.1
876.666	17.3
877.043	11.8
877.421	12.7
877.798	15.8
878.175	11.6
878.552	4.5
878.929	13.5
879.306	9.4
879.683	17.8
880.06	12.1
880.437	10.5
880.813	11.2
881.19	29.4
881.567	11.8
881.943	8.5
882.32	5.7
882.696	-3.5
883.073	22.7
883.449	-0.1
883.825	3.2
884.202	2
884.578	5.9
884.954	11.6
885.33	10.1
885.706	13.5
886.082	2.2
886.458	5.9
886.834	20.4
887.209	10.8
887.585	22
887.961	7.7
888.336	17.5
888.712	14.8
889.087	10.5
889.463	7.2
889.838	4.2
890.213	20.5
890.589	7.9
890.964	8.6
891.339	7
891.714	18
892.089	4.1
892.464	17.9
892.839	10.6
893.214	16.3
893.589	9
893.963	11.7
894.338	10.7
894.713	7.2
895.087	14.2
895.462	7.8
895.836	6.5
896.211	9
896.585	19.4
896.959	4.9
897.334	11.4
897.708	9.8
898.082	14.6
898.456	12.4
898.83	19.6
899.204	12.7
899.578	11.6
899.952	12.9
900.325	8.2
900.699	14.4
901.073	7.7
901.446	3.8
901.82	16.6
902.193	2.9
902.567	6.4
902.94	5.9
903.313	15
903.687	9.4
904.06	19
904.433	21.7
904.806	10.9
905.179	8.7
905.552	19
905.925	25.1
906.298	12.2
906.671	21
907.043	19.1
907.416	14.7
907.789	18.3
908.161	20.9
908.534	18.1
908.906	31.9
909.279	10.8
909.651	22
910.023	20.3
910.396	14
910.768	26.5
911.14	20
911.512	16.2
911.884	32.7
912.256	22.5
912.628	22.9
912.999	6.8
913.371	21.9
913.743	23.8
914.115	23.2
914.486	14.9
914.858	27.4
915.229	16.2
915.601	23.2
915.972	17.8
916.343	17.5
916.715	19.7
917.086	12.8
917.457	25.1
917.828	22
918.199	27.2
918.57	20.4
918.941	21.9
919.312	25.9
919.682	22.6
920.053	22.6
920.424	28.7
920.794	20.1
921.165	20.8
921.536	23.3
921.906	21
922.276	34
922.647	31.1
923.017	20
923.387	21.8
923.757	30.6
924.127	8.3
924.497	17.9
924.867	26.5
925.237	32.3
925.607	17.5
925.977	14.9
926.347	27.4
926.716	27.6
927.086	33.7
927.456	22.1
927.825	22.7
928.195	18.2
928.564	20.4
928.933	24.2
929.303	27.2
929.672	17.8
930.041	24.4
930.41	24.9
930.779	18
931.148	21.7
931.517	23.4
931.886	29.4
932.255	10.1
932.624	16.1
932.993	24.5
933.361	18.8
933.73	29.6
934.098	27.2
934.467	22.2
934.835	23
935.204	29.8
935.572	25.9
935.94	27.4
936.308	19.1
936.677	19.5
937.045	30.5
937.413	18.7
937.781	24.7
938.149	26
938.516	26.8
938.884	10.5
939.252	30.2
939.62	27.5
939.987	20.2
940.355	16.8
940.722	17.8
941.09	14.8
941.457	25.6
941.825	26.8
942.192	32.1
942.559	27
942.926	19.1
943.293	21.4
943.66	20.6
944.027	25.3
944.394	30.3
944.761	24.3
945.128	20.1
945.495	25.1
945.861	26.4
946.228	15.5
946.595	22.8
946.961	15.2
947.328	24.4
947.694	16.4
948.06	18.1
948.427	23.5
948.793	18.8
949.159	14.6
949.525	20.2
949.891	18.1
950.257	12.2
950.623	19.9
950.989	28.2
951.355	26
951.721	17.9
952.087	15.3
952.452	13.1
952.818	12.4
953.183	12.8
953.549	20.1
953.914	17.4
954.28	15.7
954.645	20
955.01	19.5
955.375	14.3
955.741	18.5
956.106	26.2
956.471	15.4
956.836	24.8
957.201	34.1
957.566	12.3
957.93	18.9
958.295	14.6
958.66	20.8
959.024	29.1
959.389	16.4
959.753	19.4
960.118	15.6
960.482	15.6
960.847	5.4
961.211	20.5
961.575	20.8
961.939	6.3
962.303	13.7
962.667	13.5
963.031	13.1
963.395	11.4
963.759	17.9
964.123	15.6
964.487	21.4
964.851	23.4
965.214	19.5
965.578	4.3
965.941	10.9
966.305	13.3
966.668	16.6
967.032	11.1
967.395	17.8
967.758	15.9
968.121	8.8
968.484	11.8
968.847	19.7
969.21	15.4
969.573	5.6
969.936	12.6
970.299	0.5
970.662	27.2
971.025	17.3
971.387	16.3
971.75	24
972.112	20
972.475	4.9
972.837	20.8
973.2	21.3
973.562	17.2
973.924	16.8
974.286	17
974.649	9.2
975.011	15.6
975.373	20
975.735	17.1
976.097	14.4
976.458	23.2
976.82	16.4
977.182	11.5
977.544	16.3
977.905	14.7
978.267	12.3
978.628	18.3
978.99	15.8
979.351	14.6
979.712	11
980.074	8.3
980.435	14.7
980.796	16.9
981.157	14.7
981.518	20.5
981.879	15.3
982.24	13.3
982.601	15.3
982.962	8.8
983.323	14.2
983.683	13.1
984.044	9.8
984.404	-1.8
984.765	12.8
985.125	16.4
985.486	9.8
985.846	13.8
986.206	7.4
986.567	10.3
986.927	6.3
987.287	13.3
987.647	18.3
988.007	13.8
988.367	16.1
988.727	14.3
989.087	16.3
989.446	13.7
989.806	13.4
990.166	12.1
990.525	28.1
990.885	9.4
991.244	20.1
991.604	10.7
991.963	14.9
992.322	12.4
992.682	15.3
993.041	5.3
993.4	22.8
993.759	14.1
994.118	21.9
994.477	17.5
994.836	25
995.195	9.3
995.553	14.3
995.912	19.3
996.271	20.6
996.629	10.5
996.988	10.9
997.346	15.4
997.705	16.1
998.063	11.9
998.422	17.3
998.78	14.1
999.138	11.6
999.496	22.5
999.854	20.5
1000.212	4.2
1000.57	18.9
1000.928	20.7
1001.286	18
1001.644	15.7
1002.001	8.4
1002.359	15.2
1002.717	2.2
1003.074	12
1003.432	7.8
1003.789	1.6
1004.147	2.6
1004.504	4.7
1004.861	11
1005.218	12.3
1005.576	18.6
1005.933	9.3
1006.29	14.7
1006.647	6.7
1007.004	22.2
1007.36	3.9
1007.717	9.6
1008.074	3
1008.431	22.1
1008.787	0.6
1009.144	3.6
1009.5	11.1
1009.857	14.8
1010.213	-0.2
1010.569	5.7
1010.926	9.5
1011.282	16.5
1011.638	10.7
1011.994	18.7
1012.35	6.9
1012.706	12.6
1013.062	16.3
1013.418	11.7
1013.774	13.3
1014.13	15.4
1014.485	24.5
1014.841	12.7
1015.197	5.2
1015.552	11.5
1015.907	19.2
1016.263	15.4
1016.618	12.1
1016.974	15.2
1017.329	13.7
1017.684	13.8
1018.039	15.6
1018.394	15.5
1018.749	8.5
1019.104	14
1019.459	11.5
1019.814	11.5
1020.168	11.7
1020.523	7.4
1020.878	15.3
1021.232	12.9
1021.587	1.7
1021.941	7.3
1022.296	7.4
1022.65	13
1023.004	6.1
1023.359	19.6
1023.713	15
1024.067	14.7
1024.421	9.3
1024.775	14.9
1025.129	16.3
1025.483	12.6
1025.837	6.4
1026.19	16.8
1026.544	5
1026.898	9.9
1027.251	14.8
1027.605	6.5
1027.958	13.3
1028.312	12.3
1028.665	12.4
1029.018	0.3
1029.372	6.9
1029.725	18.4
1030.078	8.2
1030.431	5.6
1030.784	7.4
1031.137	15.5
1031.49	3.8
1031.843	11.7
1032.195	13.7
1032.548	10.3
1032.901	3.6
1033.253	2.2
1033.606	9.8
1033.958	17.6
1034.311	9.8
1034.663	15.9
1035.016	10.1
1035.368	15.7
1035.72	13
1036.072	11.3
1036.424	8.8
1036.776	8.1
1037.128	13.8
1037.48	9.2
